Time (?)	Temperature	Kinetic energy (?)	Potential Energy (?)

0.00997765	291.74	1827.41	-22027.9
0.109754	275.291	1724.37	-21928.4
0.209531	237.164	1485.55	-21682.2
0.309307	185.704	1163.21	-21345.5
0.409084	133.746	837.76	-21028.4
0.50886	94.8987	594.427	-20756.7
0.608637	76.5272	479.352	-20638.2
0.708413	76.9818	482.199	-20656.5
0.80819	89.2087	558.787	-20722.6
0.907966	105.297	659.561	-20840.6
1.00774	119.601	749.156	-20938.9
1.10752	129.357	810.269	-20966
1.2073	134.259	840.974	-20997.9
1.30707	136.08	852.377	-20990.7
1.40685	137.181	859.276	-21013.2
1.50663	139.449	873.481	-21033.4
1.6064	144.503	905.142	-21069
1.70618	152.18	953.225	-21121.7
1.80596	160.81	1007.29	-21152.2
1.90573	168.056	1052.67	-21192.1
2.00551	172.057	1077.73	-21202.3
2.10528	172.429	1080.06	-21213.2
2.20506	169.017	1058.69	-21199
2.30484	162.706	1019.16	-21142.7
2.40461	155.435	973.617	-21126.4
2.50439	150.216	940.925	-21074.3
2.60417	149.411	935.882	-21056.3
2.70394	152.508	955.283	-21124.4
2.80372	157.599	987.167	-21166.9
2.9035	161.678	1012.72	-21157.1
3.00327	162.814	1019.84	-21174.2
3.10305	161.338	1010.59	-21154.4
3.20283	157.915	989.148	-21122
3.3026	153.607	962.162	-21096.2
3.40238	149.528	936.614	-21062.7
3.50216	146.378	916.886	-21050.4
3.60193	144.591	905.693	-21040.8
3.70171	144.278	903.73	-21038.3
3.80149	145.505	911.414	-21045.4
3.90126	148.693	931.387	-21049.4
4.00104	153.068	958.791	-21075.1
4.10082	157.559	986.923	-21116
4.20059	161.331	1010.55	-21144
4.30037	162.845	1020.03	-21145.7
4.40015	161.562	1011.99	-21128
4.49992	158.389	992.117	-21064.3
4.5997	155.184	972.044	-21046.7
4.69947	153.454	961.204	-21069.1
4.79925	153.921	964.134	-21081.3
4.89903	155.938	976.767	-21051.9
4.9988	158.516	992.912	-21089.8
5.09858	160.617	1006.07	-21090.8
5.19836	161.11	1009.17	-21101.8
5.29813	159.919	1001.7	-21091.5
5.39791	157.831	988.621	-21034.8
5.49769	156.177	978.264	-21019.1
5.59746	157.019	983.536	-21039.2
5.69724	159.974	1002.05	-21071.3
5.79702	163.441	1023.76	-21083.2
5.89679	166.327	1041.84	-21114.1
5.99657	167.731	1050.64	-21095.5
6.09635	167.12	1046.81	-21079.2
6.19612	164.6	1031.02	-21069.6
6.2959	161.496	1011.58	-21046.7
6.39568	159.171	997.016	-21080.8
6.49545	158.23	991.125	-21057.3
6.59523	159.487	998.995	-21074.9
6.69501	162.287	1016.54	-21073
6.79478	165.508	1036.71	-21084.1
6.89456	167.747	1050.74	-21070.6
6.99434	168.084	1052.84	-21044.9
7.09411	165.731	1038.11	-21029.5
7.19389	161.118	1009.21	-20992.8
7.29366	155.545	974.303	-20954.2
7.39344	151.498	948.956	-20942.9
7.49322	150.391	942.019	-20928
7.59299	153.201	959.623	-20952.1
7.69277	158.16	990.686	-20990.9
7.79255	163.556	1024.49	-20998.7
7.89232	167.499	1049.18	-21065.4
7.9921	168.919	1058.08	-21068
8.09188	168.066	1052.74	-21058.6
8.19165	165.869	1038.97	-21025.5
8.29143	163.884	1026.54	-21002.1
8.39121	162.525	1018.03	-20974.6
8.49098	161.664	1012.64	-20980.3
8.59076	162.287	1016.53	-20961.8
8.69054	163.996	1027.24	-20972.7
8.79031	166.69	1044.11	-20968.3
8.89009	170.325	1066.88	-21006.7
8.98987	172.702	1081.77	-21007.5
9.08964	173.904	1089.3	-21039.5
9.18942	174.244	1091.43	-21037.1
9.2892	173.603	1087.41	-21056.7
9.38897	172.278	1079.12	-21049.6
9.48875	170.498	1067.97	-21022.3
9.58853	168.053	1052.65	-20986.6
9.6883	165.556	1037.01	-20961.8
9.78808	163.915	1026.73	-20974.4
9.88785	163.583	1024.65	-20937.5
9.98763	164.535	1030.61	-20967.2
10.0874	166.549	1043.23	-20969.6
10.1872	169.577	1062.2	-20971
10.287	172.633	1081.34	-20959.8
10.3867	175.641	1100.18	-20991.5
10.4865	177.799	1113.7	-21001.9
10.5863	178.478	1117.95	-21009.5
10.6861	178.381	1117.35	-20995.3
10.7858	178.303	1116.86	-21015.9
10.8856	177.858	1114.07	-21000.4
10.9854	176.75	1107.13	-20991.2
11.0852	174.832	1095.12	-20979.8
11.1849	173.335	1085.74	-20964.1
11.2847	172.788	1082.31	-20938.8
11.3845	172.756	1082.11	-20918
11.4843	173.595	1087.37	-20929
11.5841	174.823	1095.06	-20941.2
11.6838	176.605	1106.22	-20916.7
11.7836	178.786	1119.88	-20969.5
11.8834	180.293	1129.32	-21017.7
11.9832	180.806	1132.53	-21030.7
12.0829	180.247	1129.03	-21041.8
12.1827	179.013	1121.3	-20999.8
12.2825	177.638	1112.69	-20983.2
12.3823	176.547	1105.86	-20962.6
12.482	176.702	1106.83	-20960.3
12.5818	176.99	1108.63	-20976.6
12.6816	176.988	1108.62	-20969.8
12.7814	176.529	1105.74	-20960.7
12.8812	175.921	1101.93	-20940.6
12.9809	175.24	1097.67	-20924.9
13.0807	174.943	1095.81	-20922.7
13.1805	175.644	1100.2	-20913.7
13.2803	177.369	1111.01	-20949.1
13.38	179.426	1123.89	-20973.8
13.4798	180.546	1130.91	-20934.1
13.5796	180.498	1130.6	-20934
13.6794	179.881	1126.74	-20913.9
13.7791	179.519	1124.47	-20939.3
13.8789	179.415	1123.82	-20967.8
13.9787	179.984	1127.39	-20930.7
14.0785	180.433	1130.2	-20914.8
14.1782	181.315	1135.72	-20906.4
14.278	182.401	1142.53	-20925.5
14.3778	183.231	1147.73	-20927.5
14.4776	183.27	1147.97	-20933.6
14.5774	183.239	1147.78	-20893.6
14.6771	183.533	1149.61	-20928.2
14.7769	185.065	1159.21	-20920.7
14.8767	187.272	1173.04	-20919.1
14.9765	188.814	1182.7	-20925.2
15.0762	189.085	1184.39	-20945.6
15.176	188.166	1178.64	-20952.3
15.2758	185.889	1164.37	-20917.4
15.3756	183.174	1147.36	-20891.2
15.4753	180.959	1133.49	-20840
15.5751	179.208	1122.52	-20827.8
15.6749	178.32	1116.96	-20835.8
15.7747	178.465	1117.87	-20850.4
15.8744	179.509	1124.41	-20845.7
15.9742	182.107	1140.69	-20837.2
16.074	185.624	1162.71	-20891.8
16.1738	188.525	1180.88	-20962.5
16.2736	190.254	1191.71	-20938.7
16.3733	190.699	1194.5	-20967.6
16.4731	190.146	1191.04	-20984.8
16.5729	188.994	1183.83	-20943.2
16.6727	187.604	1175.12	-20972.7
16.7724	186.967	1171.12	-20960
16.8722	188.115	1178.32	-20914
16.972	190.918	1195.87	-20935.3
17.0718	193.456	1211.77	-20958.9
17.1715	194.245	1216.71	-20950
17.2713	192.929	1208.47	-20976.3
17.3711	190.292	1191.96	-20940.3
17.4709	187.566	1174.88	-20882.5
17.5706	185.624	1162.71	-20860.3
17.6704	184.709	1156.98	-20894.1
17.7702	185.154	1159.77	-20927.9
17.87	186.684	1169.35	-20942.8
17.9698	188.827	1182.77	-20935.7
18.0695	190.696	1194.48	-20935.5
18.1693	190.933	1195.97	-20933
18.2691	189.089	1184.41	-20891
18.3689	186.55	1168.51	-20857.7
18.4686	185.285	1160.59	-20847.4
18.5684	185.902	1164.46	-20825.9
18.6682	187.669	1175.52	-20896.8
18.768	188.946	1183.52	-20913.9
18.8677	189.308	1185.79	-20916.4
18.9675	189.652	1187.95	-20928.6
19.0673	190.82	1195.26	-20935.2
19.1671	192.518	1205.9	-20930.7
19.2668	193.598	1212.66	-20921.6
19.3666	193.241	1210.42	-20859.6
19.4664	191.276	1198.12	-20807.6
19.5662	188.459	1180.47	-20798.9
19.666	186.1	1165.69	-20790.7
19.7657	185.09	1159.37	-20794.1
19.8655	186.096	1165.67	-20806.7
19.9653	187.816	1176.44	-20810
20.0651	189.947	1189.79	-20820.6
20.1648	192.166	1203.69	-20851.9
20.2646	193.936	1214.78	-20894.1
20.3644	194.319	1217.18	-20885.1
20.4642	193.409	1211.48	-20869.8
20.5639	192.535	1206	-20841.8
20.6637	193.292	1210.75	-20806.6
20.7635	195.623	1225.34	-20802.2
20.8633	198.345	1242.4	-20838.8
20.9631	201.236	1260.51	-20853.3
21.0628	202.951	1271.25	-20877.4
21.1626	203.195	1272.78	-20871.5
21.2624	203.252	1273.13	-20893.9
21.3622	202.488	1268.35	-20915.4
21.4619	199.633	1250.46	-20875.3
21.5617	194.866	1220.6	-20831.6
21.6615	189.01	1183.92	-20795.4
21.7613	184.643	1156.57	-20740.4
21.861	182.232	1141.47	-20715.2
21.9608	184.396	1155.02	-20725.9
22.0606	190.153	1191.08	-20783.5
22.1604	196.139	1228.57	-20877.4
22.2601	200.106	1253.42	-20877.7
22.3599	202.02	1265.41	-20886.4
22.4597	202.108	1265.97	-20883.8
22.5595	200.414	1255.35	-20856.9
22.6593	198.404	1242.76	-20847.3
22.759	196.125	1228.49	-20819.6
22.8588	194.58	1218.81	-20813
22.9586	194.907	1220.86	-20825.6
23.0584	197.133	1234.8	-20835.8
23.1581	200.769	1257.58	-20859.2
23.2579	204.372	1280.15	-20869.9
23.3577	206.533	1293.68	-20878.6
23.4575	206.97	1296.42	-20885.8