Time (?)	Temperature	Kinetic energy (?)	Potential Energy (?)	Number Density	Pressure
0.00997765	1.67917	10075	-7939.4	32.9914	55.3961
0.109754	1.68866	10132	-7996.3	32.9914	55.709
0.209531	1.69829	10189.7	-8054.1	32.9914	56.0268
0.309307	1.70772	10246.3	-8110.65	32.9914	56.3377
0.409084	1.71644	10298.6	-8163	32.9914	56.6256
0.50886	1.72382	10342.9	-8207.31	32.9914	56.8693
0.608637	1.72907	10374.4	-8238.81	32.9914	57.0426
0.708413	1.73132	10387.9	-8252.27	32.9914	57.1168
0.80819	1.72978	10378.7	-8243.07	32.9914	57.0664
0.907966	1.72403	10344.2	-8208.55	32.9914	56.877
1.00774	1.71414	10284.8	-8149.23	32.9914	56.5512
1.10752	1.7007	10204.2	-8068.59	32.9914	56.1083
1.2073	1.68462	10107.7	-7972.12	32.9914	55.5785
1.30707	1.66693	10001.6	-7865.93	32.9914	54.9952
1.40685	1.6486	9891.59	-7755.96	32.9914	54.3911
1.50663	1.63052	9783.12	-7647.49	32.9914	53.7954
1.6064	1.61339	9680.35	-7544.72	32.9914	53.2309
1.70618	1.59772	9586.31	-7450.68	32.9914	52.7143
1.80596	1.58389	9503.36	-7367.73	32.9914	52.2587
1.90573	1.57222	9433.3	-7297.67	32.9914	51.8739
2.00551	1.56282	9376.95	-7241.32	32.9914	51.5643
2.10528	1.55568	9334.07	-7198.45	32.9914	51.3289
2.20506	1.5506	9303.63	-7168	32.9914	51.1615
2.30484	1.54733	9283.98	-7148.36	32.9914	51.0536
2.40461	1.54564	9273.81	-7138.19	32.9914	50.9978
2.50439	1.54544	9272.63	-7137	32.9914	50.9913
2.60417	1.54679	9280.72	-7145.1	32.9914	51.0359
2.70394	1.54976	9298.55	-7162.93	32.9914	51.1339
2.80372	1.55431	9325.87	-7190.24	32.9914	51.2841
2.9035	1.56024	9361.46	-7225.83	32.9914	51.4797
3.00327	1.56726	9403.57	-7267.95	32.9914	51.7111
3.10305	1.57503	9450.17	-7314.55	32.9914	51.9672
3.20283	1.5832	9499.21	-7363.59	32.9914	52.2368
3.3026	1.59149	9548.96	-7413.34	32.9914	52.5103
3.40238	1.59973	9598.38	-7462.76	32.9914	52.7819
3.50216	1.60785	9647.12	-7511.49	32.9914	53.0497
3.60193	1.61582	9694.91	-7559.28	32.9914	53.3124
3.70171	1.62353	9741.2	-7605.58	32.9914	53.5668
3.80149	1.63083	9784.95	-7649.33	32.9914	53.8073
3.90126	1.63746	9824.78	-7689.16	32.9914	54.0262
4.00104	1.64318	9859.05	-7723.43	32.9914	54.2145
4.10082	1.64776	9886.57	-7750.95	32.9914	54.3659
4.20059	1.65121	9907.23	-7771.61	32.9914	54.4795
4.30037	1.65373	9922.4	-7786.77	32.9914	54.563
4.40015	1.65575	9934.52	-7798.89	32.9914	54.6297
4.49992	1.65775	9946.47	-7810.84	32.9914	54.6954
4.5997	1.66018	9961.08	-7825.44	32.9914	54.7757
4.69947	1.66341	9980.44	-7844.81	32.9914	54.8821
4.79925	1.6675	10005	-7869.37	32.9914	55.0171
4.89903	1.67217	10033	-7897.37	32.9914	55.1709
4.9988	1.67683	10061	-7925.33	32.9914	55.3247
5.09858	1.68086	10085.2	-7949.53	32.9914	55.4576
5.19836	1.6839	10103.4	-7967.77	32.9914	55.5579
5.29813	1.68593	10115.6	-7979.93	32.9914	55.6248
5.39791	1.68714	10122.8	-7987.2	32.9914	55.6647
5.49769	1.6878	10126.8	-7991.17	32.9914	55.6865
5.59746	1.68809	10128.6	-7992.92	32.9914	55.6961
5.69724	1.68812	10128.7	-7993.07	32.9914	55.6969
5.79702	1.688	10128	-7992.37	32.9914	55.6931
5.89679	1.68797	10127.8	-7992.17	32.9914	55.6919
5.99657	1.68829	10129.7	-7994.09	32.9914	55.7025
6.09635	1.68912	10134.7	-7999.1	32.9914	55.73
6.19612	1.6904	10142.4	-8006.75	32.9914	55.7721
6.2959	1.69187	10151.2	-8015.59	32.9914	55.8206
6.39568	1.69328	10159.7	-8024.02	32.9914	55.8669
6.49545	1.6944	10166.4	-8030.78	32.9914	55.9041
6.59523	1.69517	10171	-8035.42	32.9914	55.9296
6.69501	1.69567	10174	-8038.37	32.9914	55.9458
6.79478	1.69602	10176.1	-8040.48	32.9914	55.9575
6.89456	1.69633	10178	-8042.33	32.9914	55.9677
6.99434	1.69664	10179.8	-8044.22	32.9914	55.9782
7.09411	1.6971	10182.6	-8046.98	32.9914	55.9935
7.19389	1.69796	10187.8	-8052.15	32.9914	56.0219
7.29366	1.69939	10196.4	-8060.73	32.9914	56.0691
7.39344	1.70137	10208.2	-8072.6	32.9914	56.1344
7.49322	1.70368	10222.1	-8086.47	32.9914	56.2106
7.59299	1.706	10236	-8100.36	32.9914	56.2869
7.69277	1.70795	10247.7	-8112.08	32.9914	56.3513
7.79255	1.70931	10255.9	-8120.22	32.9914	56.396
7.89232	1.71008	10260.5	-8124.82	32.9914	56.4212
7.9921	1.71045	10262.7	-8127.09	32.9914	56.4337
8.09188	1.71076	10264.6	-8128.95	32.9914	56.4439
8.19165	1.71137	10268.2	-8132.6	32.9914	56.4639
8.29143	1.71256	10275.4	-8139.73	32.9914	56.5032
8.39121	1.71439	10286.3	-8150.69	32.9914	56.5634
8.49098	1.71663	10299.8	-8164.16	32.9914	56.6374
8.59076	1.7189	10313.4	-8177.75	32.9914	56.7122
8.69054	1.72086	10325.2	-8189.53	32.9914	56.7769
8.79031	1.72239	10334.3	-8198.68	32.9914	56.8272
8.89009	1.72351	10341	-8205.4	32.9914	56.8642
8.98987	1.72429	10345.7	-8210.09	32.9914	56.8899
9.08964	1.72472	10348.3	-8212.69	32.9914	56.9042
9.18942	1.72466	10348	-8212.32	32.9914	56.9021
9.2892	1.72381	10342.9	-8207.25	32.9914	56.8742
9.38897	1.72192	10331.5	-8195.89	32.9914	56.8118
9.48875	1.71888	10313.3	-8177.61	32.9914	56.7114
9.58853	1.71486	10289.2	-8153.53	32.9914	56.579
9.6883	1.71047	10262.8	-8127.16	32.9914	56.4341
9.78808	1.70645	10238.7	-8103.08	32.9914	56.3018
9.88785	1.70331	10219.9	-8084.23	32.9914	56.1982
