Time (?)	Temperature	Kinetic energy (?)	Potential Energy (?)	Number Density	Pressure
0.00997765	2.5123	15073.8	-3098.41	28.8675	72.5233
0.109754	2.52022	15121.3	-3145.88	28.8675	72.7517
0.209531	2.52893	15173.6	-3198.17	28.8675	73.0033
0.309307	2.53844	15230.7	-3255.24	28.8675	73.2779
0.409084	2.54871	15292.3	-3316.84	28.8675	73.5742
0.50886	2.5596	15357.6	-3382.16	28.8675	73.8884
0.608637	2.57091	15425.4	-3450.02	28.8675	74.215
0.708413	2.58227	15493.6	-3518.2	28.8675	74.543
0.80819	2.59315	15558.9	-3583.47	28.8675	74.857
0.907966	2.60277	15616.6	-3641.22	28.8675	75.1349
1.00774	2.61027	15661.6	-3686.24	28.8675	75.3515
1.10752	2.61496	15689.8	-3714.35	28.8675	75.4868
1.2073	2.61652	15699.1	-3723.72	28.8675	75.532
1.30707	2.61509	15690.5	-3715.12	28.8675	75.4907
1.40685	2.6111	15666.6	-3691.2	28.8675	75.3758
1.50663	2.60512	15630.7	-3655.34	28.8675	75.2034
1.6064	2.59775	15586.5	-3611.09	28.8675	74.9907
1.70618	2.58966	15538	-3562.57	28.8675	74.7574
1.80596	2.58166	15490	-3514.57	28.8675	74.5266
1.90573	2.57427	15445.6	-3470.24	28.8675	74.3135
2.00551	2.56761	15405.7	-3430.29	28.8675	74.1214
2.10528	2.56176	15370.5	-3395.16	28.8675	73.9526
2.20506	2.55696	15341.7	-3366.36	28.8675	73.8142
2.30484	2.55353	15321.2	-3345.8	28.8675	73.7155
2.40461	2.55165	15309.9	-3334.53	28.8675	73.6615
2.50439	2.55123	15307.4	-3332.02	28.8675	73.6495
2.60417	2.55185	15311.1	-3335.72	28.8675	73.6674
2.70394	2.55298	15317.9	-3342.5	28.8675	73.7002
2.80372	2.55432	15325.9	-3350.53	28.8675	73.7389
2.9035	2.55592	15335.5	-3360.15	28.8675	73.7853
3.00327	2.55817	15349	-3373.63	28.8675	73.8503
3.10305	2.56155	15369.3	-3393.9	28.8675	73.9479
3.20283	2.5663	15397.8	-3422.39	28.8675	74.085
3.3026	2.57214	15432.8	-3457.43	28.8675	74.2536
3.40238	2.57846	15470.7	-3495.38	28.8675	74.4362
3.50216	2.5848	15508.8	-3533.44	28.8675	74.6194
3.60193	2.59127	15547.6	-3572.21	28.8675	74.806
3.70171	2.59849	15590.9	-3615.55	28.8675	75.0145
3.80149	2.60715	15642.9	-3667.51	28.8675	75.2646
3.90126	2.6173	15703.8	-3728.43	28.8675	75.5576
4.00104	2.62834	15770	-3794.68	28.8675	75.8763
4.10082	2.63946	15836.7	-3861.38	28.8675	76.1971
4.20059	2.65004	15900.3	-3924.9	28.8675	76.5027
4.30037	2.65987	15959.2	-3983.86	28.8675	76.7864
4.40015	2.66889	16013.3	-4037.95	28.8675	77.0466
4.49992	2.67705	16062.3	-4086.92	28.8675	77.2821
4.5997	2.68435	16106.1	-4130.75	28.8675	77.493
4.69947	2.69084	16145	-4169.65	28.8675	77.6802
4.79925	2.69658	16179.5	-4204.12	28.8675	77.846
4.89903	2.70189	16211.3	-4235.95	28.8675	77.9991
4.9988	2.70725	16243.5	-4268.11	28.8675	78.1538
5.09858	2.71277	16276.6	-4301.22	28.8675	78.3131
5.19836	2.71787	16307.2	-4331.84	28.8675	78.4604
5.29813	2.72206	16332.4	-4357.01	28.8675	78.5815
5.39791	2.72561	16353.6	-4378.28	28.8675	78.6839
5.49769	2.72908	16374.5	-4399.09	28.8675	78.784
5.59746	2.73276	16396.6	-4421.19	28.8675	78.8904
5.69724	2.7367	16420.2	-4444.83	28.8675	79.0042
5.79702	2.74091	16445.4	-4470.08	28.8675	79.1256
5.89679	2.74532	16471.9	-4496.55	28.8675	79.2529
5.99657	2.74974	16498.4	-4523.06	28.8675	79.3804
6.09635	2.75386	16523.2	-4547.8	28.8675	79.4994
6.19612	2.7575	16545	-4569.63	28.8675	79.6042
6.2959	2.76053	16563.2	-4587.82	28.8675	79.6917
6.39568	2.76289	16577.3	-4601.97	28.8675	79.7598
6.49545	2.76464	16587.9	-4612.5	28.8675	79.8105
6.59523	2.76612	16596.7	-4621.37	28.8675	79.8532
6.69501	2.76764	16605.8	-4630.47	28.8675	79.897
6.79478	2.76917	16615	-4639.66	28.8675	79.9413
6.89456	2.77048	16622.9	-4647.52	28.8675	79.9791
6.99434	2.77127	16627.6	-4652.28	28.8675	80.002
7.09411	2.77141	16628.4	-4653.06	28.8675	80.0058
7.19389	2.77102	16626.1	-4650.74	28.8675	79.9947
7.29366	2.77036	16622.2	-4646.79	28.8675	79.9758
7.39344	2.76964	16617.9	-4642.49	28.8675	79.9551
7.49322	2.76902	16614.1	-4638.75	28.8675	79.9371
7.59299	2.76845	16610.7	-4635.32	28.8675	79.9206
7.69277	2.76772	16606.3	-4630.98	28.8675	79.8998
7.79255	2.76675	16600.5	-4625.13	28.8675	79.8716
7.89232	2.76566	16594	-4618.59	28.8675	79.8401
7.9921	2.76487	16589.2	-4613.87	28.8675	79.8174
8.09188	2.765	16590	-4614.63	28.8675	79.821
8.19165	2.76641	16598.5	-4623.08	28.8675	79.8616
8.29143	2.76886	16613.2	-4637.78	28.8675	79.9322
8.39121	2.77165	16629.9	-4654.52	28.8675	80.0127
8.49098	2.77417	16645	-4669.64	28.8675	80.0854
8.59076	2.77618	16657.1	-4681.73	28.8675	80.1436
8.69054	2.77777	16666.6	-4691.26	28.8675	80.1894
8.79031	2.77904	16674.3	-4698.9	28.8675	80.2262
8.89009	2.77995	16679.7	-4704.3	28.8675	80.2522
8.98987	2.78026	16681.5	-4706.17	28.8675	80.2613
9.08964	2.78004	16680.2	-4704.86	28.8675	80.255
9.18942	2.77986	16679.2	-4703.79	28.8675	80.2499
9.2892	2.78049	16682.9	-4707.55	28.8675	80.268
9.38897	2.78233	16694	-4718.61	28.8675	80.3212
9.48875	2.785	16710	-4734.62	28.8675	80.3982
9.58853	2.78745	16724.7	-4749.3	28.8675	80.4688
9.6883	2.78855	16731.3	-4755.92	28.8675	80.5005
9.78808	2.78763	16725.8	-4750.4	28.8675	80.4738
9.88785	2.78466	16708	-4732.59	28.8675	80.3882
