Time (?)	Temperature	Kinetic energy (?)	Potential Energy (?)	Number Density	Pressure
0.00997765	1.67498	10049.9	-3030.28	28.8675	48.3519
0.109754	1.68033	10082	-3062.36	28.8675	48.5062
0.209531	1.68621	10117.2	-3097.65	28.8675	48.676
0.309307	1.69264	10155.8	-3136.23	28.8675	48.8616
0.409084	1.69962	10197.7	-3178.12	28.8675	49.0631
0.50886	1.70715	10242.9	-3223.29	28.8675	49.2805
0.608637	1.71523	10291.4	-3271.76	28.8675	49.5137
0.708413	1.72381	10342.8	-3323.25	28.8675	49.7614
0.80819	1.73282	10396.9	-3377.3	28.8675	50.0214
0.907966	1.74215	10452.9	-3433.3	28.8675	50.2908
1.00774	1.75161	10509.7	-3490.09	28.8675	50.5641
1.10752	1.76096	10565.8	-3546.16	28.8675	50.8338
1.2073	1.76985	10619.1	-3599.49	28.8675	51.0904
1.30707	1.77788	10667.3	-3647.67	28.8675	51.3222
1.40685	1.78467	10708	-3688.44	28.8675	51.5184
1.50663	1.78998	10739.9	-3720.28	28.8675	51.6716
1.6064	1.79369	10762.2	-3742.59	28.8675	51.779
1.70618	1.79589	10775.4	-3755.77	28.8675	51.8425
1.80596	1.79677	10780.6	-3761.05	28.8675	51.8679
1.90573	1.79657	10779.4	-3759.87	28.8675	51.8623
2.00551	1.79553	10773.2	-3753.58	28.8675	51.8322
2.10528	1.7939	10763.4	-3743.83	28.8675	51.7854
2.20506	1.79204	10752.2	-3732.65	28.8675	51.7317
2.30484	1.79024	10741.4	-3721.85	28.8675	51.6799
2.40461	1.78869	10732.1	-3712.55	28.8675	51.6352
2.50439	1.78743	10724.6	-3705.02	28.8675	51.5991
2.60417	1.78649	10718.9	-3699.36	28.8675	51.572
2.70394	1.78594	10715.6	-3696.07	28.8675	51.5563
2.80372	1.78595	10715.7	-3696.14	28.8675	51.5568
2.9035	1.78667	10720	-3700.43	28.8675	51.5775
3.00327	1.78813	10728.8	-3709.23	28.8675	51.62
3.10305	1.79026	10741.6	-3722.01	28.8675	51.6816
3.20283	1.79286	10757.2	-3737.6	28.8675	51.7567
3.3026	1.79569	10774.1	-3754.54	28.8675	51.8383
3.40238	1.79857	10791.4	-3771.82	28.8675	51.9215
3.50216	1.80148	10808.9	-3789.3	28.8675	52.0056
3.60193	1.80455	10827.3	-3807.72	28.8675	52.0943
3.70171	1.80801	10848.1	-3828.48	28.8675	52.1943
3.80149	1.81213	10872.8	-3853.21	28.8675	52.3133
3.90126	1.81707	10902.4	-3882.84	28.8675	52.4559
4.00104	1.82273	10936.4	-3916.81	28.8675	52.6194
4.10082	1.82878	10972.7	-3953.13	28.8675	52.7942
4.20059	1.83487	11009.2	-3989.66	28.8675	52.97
4.30037	1.84082	11044.9	-4025.34	28.8675	53.1417
4.40015	1.84672	11080.3	-4060.76	28.8675	53.3121
4.49992	1.85285	11117.1	-4097.5	28.8675	53.4889
4.5997	1.85947	11156.8	-4137.27	28.8675	53.6803
4.69947	1.86681	11200.9	-4181.31	28.8675	53.8921
4.79925	1.87485	11249.1	-4229.55	28.8675	54.1242
4.89903	1.88332	11299.9	-4280.34	28.8675	54.3686
4.9988	1.8918	11350.8	-4331.23	28.8675	54.6133
5.09858	1.89997	11399.8	-4380.25	28.8675	54.8491
5.19836	1.90766	11446	-4426.42	28.8675	55.0712
5.29813	1.91484	11489	-4469.46	28.8675	55.2784
5.39791	1.92151	11529.1	-4509.51	28.8675	55.471
5.49769	1.92773	11566.4	-4546.8	28.8675	55.6504
5.59746	1.93352	11601.1	-4581.52	28.8675	55.8174
5.69724	1.93886	11633.2	-4613.59	28.8675	55.9717
5.79702	1.94373	11662.4	-4642.82	28.8675	56.1124
5.89679	1.94812	11688.7	-4669.14	28.8675	56.239
5.99657	1.95207	11712.4	-4692.86	28.8675	56.3531
6.09635	1.95566	11734	-4714.39	28.8675	56.4567
6.19612	1.95893	11753.6	-4734.02	28.8675	56.5511
6.2959	1.96198	11771.9	-4752.29	28.8675	56.639
6.39568	1.96496	11789.8	-4770.2	28.8675	56.7252
6.49545	1.96809	11808.5	-4788.96	28.8675	56.8155
6.59523	1.97146	11828.7	-4809.17	28.8675	56.9128
6.69501	1.97503	11850.2	-4830.6	28.8675	57.0159
6.79478	1.97871	11872.3	-4852.7	28.8675	57.1222
6.89456	1.98244	11894.7	-4875.09	28.8675	57.2299
6.99434	1.98612	11916.7	-4897.18	28.8675	57.3362
7.09411	1.98964	11937.8	-4918.28	28.8675	57.4377
7.19389	1.9929	11957.4	-4937.86	28.8675	57.5318
7.29366	1.99587	11975.2	-4955.68	28.8675	57.6175
7.39344	1.99851	11991.1	-4971.52	28.8675	57.6937
7.49322	2.00075	12004.5	-4984.94	28.8675	57.7582
7.59299	2.00251	12015.1	-4995.51	28.8675	57.809
7.69277	2.00374	12022.4	-5002.86	28.8675	57.8444
7.79255	2.00442	12026.5	-5006.96	28.8675	57.8642
7.89232	2.0047	12028.2	-5008.65	28.8675	57.8724
7.9921	2.00486	12029.2	-5009.61	28.8675	57.877
8.09188	2.00521	12031.3	-5011.71	28.8675	57.8872
8.19165	2.00594	12035.6	-5016.07	28.8675	57.9081
8.29143	2.00702	12042.1	-5022.58	28.8675	57.9395
8.39121	2.00828	12049.7	-5030.08	28.8675	57.9756
8.49098	2.00945	12056.7	-5037.15	28.8675	58.0096
8.59076	2.01037	12062.2	-5042.67	28.8675	58.0361
8.69054	2.01098	12065.9	-5046.33	28.8675	58.0538
8.79031	2.01138	12068.3	-5048.72	28.8675	58.0653
8.89009	2.01175	12070.5	-5050.92	28.8675	58.0758
8.98987	2.01222	12073.3	-5053.74	28.8675	58.0894
9.08964	2.01276	12076.6	-5056.99	28.8675	58.105
9.18942	2.01318	12079.1	-5059.5	28.8675	58.1171
9.2892	2.01319	12079.1	-5059.55	28.8675	58.1173
9.38897	2.01249	12075	-5055.39	28.8675	58.0973
9.48875	2.01095	12065.7	-5046.11	28.8675	58.0526
9.58853	2.00881	12052.9	-5033.28	28.8675	57.9909
9.6883	2.00683	12041	-5021.41	28.8675	57.9337
9.78808	2.00589	12035.3	-5015.76	28.8675	57.9065
9.88785	2.00643	12038.6	-5018.98	28.8675	57.922
